% NTCLE413-428 10k 1% NTC thermistor, R25 = 10kOhms +/- 1%, B25 = 3435K +/- 1%
% T (degC) Rt (Ohms) Rt/R25   R tol (%) alpha (%/K) T-tol (+/- degC) Rmin (Ohm) Rmax (Ohm)
-40.0      190953    19.095   4.24     -5.46        0.78             182848     199057
-35.0      145953    14.595   3.93     -5.30        0.74             140213     151693
-30.0      112440    11.244   3.63     -5.14        0.71             108354     116526
-25.0      87285     8.7285   3.35     -4.99        0.67             84364      90206
-20.0      68260     6.8260   3.07     -4.85        0.63             66164      70355
-15.0      53762     5.3762   2.80     -4.71        0.60             52254      55270
-10.0      42636     4.2636   2.55     -4.57        0.56             41549      43723
-5.0       34038     3.4038   2.30     -4.44        0.52             33254      34822
0.0        27348     2.7348   2.07     -4.31        0.48             26783      27913
5.0        22108     2.2108   1.84     -4.19        0.44             21702      22515
10.0       17979     1.7979   1.62     -4.08        0.40             17689      18270
15.0       14706     1.4706   1.40     -3.96        0.35             14499      14912
20.0       12094     1.2094   1.20     -3.86        0.31             11949      12239
25.0       10000     1.0000   1.00     -3.75        0.27             9900.0     10100
30.0       8310.8    0.83108  1.19     -3.65        0.33             8211.7     8409.8
35.0       6941.1    0.69411  1.38     -3.55        0.39             6845.5     7036.7
40.0       5824.9    0.58249  1.56     -3.46        0.45             5734.1     5915.6
45.0       4910.6    0.49106  1.73     -3.37        0.51             4825.6     4995.7
50.0       4158.3    0.41583  1.90     -3.28        0.58             4079.2     4237.3
55.0       3536.2    0.35362  2.06     -3.20        0.65             3463.2     3609.2
60.0       3019.7    0.30197  2.22     -3.12        0.71             2952.5     3086.8
65.0       2588.8    0.25888  2.38     -3.04        0.78             2527.3     2650.4
70.0       2228.0    0.22280  2.53     -2.96        0.85             2171.7     2284.3
75.0       1924.6    0.19246  2.67     -2.89        0.92             1873.1     1976.0
80.0       1668.4    0.16684  2.81     -2.82        1.00             1621.5     1715.3
85.0       1451.3    0.14513  2.95     -2.75        1.07             1408.5     1494.2
90.0       1266.7    0.12667  3.08     -2.69        1.15             1227.7     1305.8
95.0       1109.2    0.11092  3.21     -2.62        1.22             1073.6     1144.8
100.0      974.26    0.097426 3.34     -2.56        1.30             941.74     1006.8
105.0      858.33    0.085833 3.46     -2.50        1.38             828.62     888.04 
